GITM2 log file
## Inputs from UAM.in
# Resart= F
# Eddy coef:    50.000 Eddy P0:     0.010 Eddy P1:     0.005
# Statistical Models Only:  F Apex:  T
# EUV Data:  TFile: 
UA/DataIn/FISM/fismflux_daily_2002.dat                                                                                                                                                                                                                                                                                                                                                                                                                                                                                                                                                                                  
# AMIE: none           
none                                                                                                                                                                                                                                                                                                                                                                                                                                                                                                                                                                                                                    
# Solar Heating:  T Joule Heating:  T Auroral Heating:  T
# NO Cooling:  T O Cooling:  T
# Conduction:  T Turbulent Conduction:  T
# Pressure Grad:  T Ion Drag:  T Neutral Drag:  T
# Viscosity:  T Coriolis:  T Gravity:  T
# Ion Chemistry:  T Ion Advection:  T Neutral Chemistry:  T
 
#START
   iStep yyyy mm dd hh mm ss  ms      dt min(T) max(T) mean(T) min(VV) max(VV) mean(VV) F107 F107A By Bz Vx HP HPn HPs SubsolarLon SubsolarLat SubsolarVTEC
       2 2002 12 21  0  0  4 100  4.1002    157.56283   1316.98420   1012.57544     -9.37364      7.93039     -0.36116    177.9    149.5      6.1     -6.0    531.2     71.9    170.4    179.6   3.14129  -0.40992  58.11934
       3 2002 12 21  0  0  7 688  3.5880    157.50631   1316.85215   1012.68528    -10.51116      8.40383     -0.54387    177.9    149.5      6.2     -6.0    531.0     72.0    170.4    179.6   3.14103  -0.40992  58.01758
       4 2002 12 21  0  0 11 242  3.5546    157.48068   1316.71645   1012.81109     -8.74191      6.07527     -0.66728    177.9    149.5      6.2     -6.0    530.8     72.0    170.4    179.6   3.14078  -0.40992  57.95642
       5 2002 12 21  0  0 14 830  3.5874    157.49270   1316.57595   1012.94686     -9.42457      6.13300     -0.76930    177.9    149.5      6.2     -6.0    530.6     72.0    170.4    179.6   3.14051  -0.40992  57.91699
       6 2002 12 21  0  0 18 439  3.6098    157.53340   1316.43647   1013.09006    -10.93147      6.72756     -0.86092    177.9    149.5      6.3     -6.0    530.3     72.1    170.4    179.6   3.14025  -0.40992  57.87156
       7 2002 12 21  0  0 22  58  3.6184    157.58690   1316.30259   1013.23811    -10.80723      6.80214     -0.95155    177.9    149.5      6.3     -6.0    530.1     72.1    170.4    179.6   3.13999  -0.40992  57.83641
       8 2002 12 21  0  0 25 677  3.6194    157.61077   1316.17730   1013.38970    -12.39327      7.30294     -1.04484    177.9    149.5      6.3     -6.0    529.9     72.2    170.4    179.6   3.13973  -0.40992  57.79101
       9 2002 12 21  0  0 29 275  3.5979    157.60973   1316.06408   1013.54288    -13.55062      8.27453     -1.13049    177.9    149.5      6.4     -6.0    529.6     72.2    170.4    179.6   3.13946  -0.40992  57.75586
      10 2002 12 21  0  0 32 848  3.5731    157.60751   1315.96265   1013.69720    -14.44031      8.72376     -1.20921    177.9    149.5      6.4     -6.0    529.4     72.3    170.4    179.6   3.13920  -0.40992  57.71036
      11 2002 12 21  0  0 36 406  3.5580    157.62480   1315.87202   1013.85258    -15.45625      9.44654     -1.27933    177.9    149.5      6.4     -6.0    529.2     72.3    170.4    179.6   3.13895  -0.40992  57.67510
      12 2002 12 21  0  0 39 947  3.5408    157.67192   1315.79265   1014.00868    -16.53796     10.71648     -1.34347    177.9    149.5      6.5     -6.0    528.9     72.3    170.4    179.6   3.13869  -0.40992  57.62992
      13 2002 12 21  0  0 43 479  3.5318    157.72672   1315.72325   1014.16533    -18.51090     11.07876     -1.41479    177.9    149.5      6.5     -6.0    528.7     72.4    170.4    179.6   3.13843  -0.40992  57.59478
      14 2002 12 21  0  0 47  14  3.5355    157.75651   1315.66392   1014.32279    -19.05369     12.26118     -1.49409    177.9    149.5      6.5     -6.0    528.5     72.4    170.4    179.6   3.13817  -0.40992  57.54971
      15 2002 12 21  0  0 50 562  3.5473    157.75582   1315.61227   1014.48109    -21.00034     13.39370     -1.56996    177.9    149.5      6.5     -6.0    528.3     72.5    170.4    179.6   3.13792  -0.40992  57.51429
      16 2002 12 21  0  0 54 123  3.5617    157.74961   1316.28413   1014.64032    -22.40934     14.13626     -1.63598    177.9    149.5      6.6     -6.0    528.0     72.5    170.4    179.6   3.13766  -0.40992  57.46889
      17 2002 12 21  0  0 57 697  3.5735    157.74923   1316.99907   1014.80013    -24.54940     15.20735     -1.69231    177.9    149.5      6.6     -6.0    527.8     72.5    170.4    179.6   3.13740  -0.40992  57.43327
      18 2002 12 21  0  1  1 277  3.5798    157.77083   1317.70630   1014.96028    -24.93811     15.87523     -1.74633    177.9    149.5      6.6     -6.0    527.7     72.6    170.4    179.6   3.13714  -0.40992  57.38758
      19 2002 12 21  0  1  4 861  3.5838    157.80521   1318.40526   1015.12031    -27.64431     17.32031     -1.80828    177.9    149.5      6.6     -6.0    527.8     72.5    170.4    179.6   3.13688  -0.40992  57.35210
      20 2002 12 21  0  1  8 449  3.5883    157.82520   1319.10106   1015.28025    -28.69327     18.01029     -1.87750    177.9    149.5      6.6     -6.0    527.9     72.5    170.4    179.6   3.13661  -0.40992  57.30629
      21 2002 12 21  0  1 12  45  3.5966    157.82316   1319.79057   1015.43992    -31.75808     19.04540     -1.94656    177.9    149.5      6.6     -6.0    528.0     72.4    170.4    179.6   3.13635  -0.40992  57.27105
      22 2002 12 21  0  1 15 651  3.6058    157.80789   1320.47475   1015.59938    -32.92838     20.26350     -2.00872    177.9    149.5      6.6     -6.0    528.1     72.4    170.4    179.6   3.13609  -0.40992  57.22513
      23 2002 12 21  0  1 19 265  3.6140    157.79224   1321.15412   1015.75838    -34.41353     20.32603     -2.06162    177.9    149.5      6.6     -6.1    528.3     72.4    170.4    179.6   3.13583  -0.40992  57.19025
      24 2002 12 21  0  1 22 885  3.6199    157.78980   1321.82846   1015.91684    -37.08116     22.30533     -2.11559    177.9    149.5      6.6     -6.1    528.4     72.3    170.4    179.6   3.13557  -0.40992  57.14424
      25 2002 12 21  0  1 26 509  3.6239    157.80106   1322.49726   1016.07436    -37.46553     22.32536     -2.17181    177.9    149.5      6.5     -6.1    528.5     72.3    170.4    179.6   3.13530  -0.40992  57.10992
      26 2002 12 21  0  1 30 137  3.6278    157.81163   1323.16041   1016.23086    -41.07607     24.12735     -2.22752    177.9    149.5      6.5     -6.1    528.6     72.2    170.4    179.6   3.13504  -0.40992  57.06396
      27 2002 12 21  0  1 33 769  3.6326    157.80780   1323.81839   1016.38612    -42.36814     25.43398     -2.28449    177.9    149.5      6.5     -6.1    528.7     72.2    170.4    179.6   3.13477  -0.40992  57.03032
      28 2002 12 21  0  1 37 408  3.6384    157.78634   1324.47189   1016.54022    -42.83671     24.75521     -2.34075    177.9    149.5      6.5     -6.1    528.8     72.2    170.4    179.6   3.13451  -0.40992  56.98435
      29 2002 12 21  0  1 41  52  3.6446    157.76067   1325.12142   1016.69300    -46.42091     27.02495     -2.39422    177.9    149.5      6.5     -6.1    528.9     72.1    170.4    179.6   3.13424  -0.40992  56.95136
      30 2002 12 21  0  1 44 703  3.6506    157.74740   1325.76699   1016.84454    -47.30146     27.99654     -2.44407    177.9    149.5      6.5     -6.1    529.0     72.1    170.4    179.6   3.13398  -0.40992  56.90538
      31 2002 12 21  0  1 48 359  3.6556    157.74729   1326.40820   1016.99453    -48.98593     27.79077     -2.49074    177.9    149.5      6.5     -6.1    529.1     72.0    170.4    179.6   3.13371  -0.40992  56.87311
      32 2002 12 21  0  1 52  18  3.6594    157.74737   1327.04450   1017.14290    -52.28768     30.49539     -2.53520    177.9    149.5      6.5     -6.1    529.3     72.0    170.4    179.6   3.13345  -0.40992  56.82713
      33 2002 12 21  0  1 55 680  3.6621    157.73582   1327.67566   1017.28941    -52.69344     31.44223     -2.57795    177.9    149.5      6.5     -6.1    529.4     72.0    170.4    179.6   3.13318  -0.40992  56.79563
      34 2002 12 21  0  1 59 345  3.6646    157.71379   1328.30203   1017.43411    -53.41864     30.44398     -2.61847    177.9    149.5      6.4     -6.1    529.5     71.9    170.4    179.6   3.13291  -0.40992  56.74966
      35 2002 12 21  0  2  3  12  3.6672    157.69390   1328.92402   1017.57688    -57.26023     33.01780     -2.65517    177.9    149.5      6.4     -6.1    529.5     72.0    170.4    179.6   3.13265  -0.40992  56.71889
      36 2002 12 21  0  2  6 681  3.6696    157.68578   1329.54167   1017.71777    -58.19732     34.29126     -2.68768    177.9    149.5      6.4     -6.2    529.5     72.1    174.9    181.5   3.13238  -0.40992  56.67277
      37 2002 12 21  0  2 10 352  3.6705    157.68608   1330.15300   1017.85668    -58.14484     33.60019     -2.71665    177.9    149.5      6.4     -6.2    529.6     72.2    174.9    181.5   3.13211  -0.40992  56.64290
      38 2002 12 21  0  2 14  23  3.6715    157.68359   1330.75908   1017.99364    -62.47351     36.32388     -2.74222    177.9    149.5      6.4     -6.2    529.6     72.3    174.9    181.5   3.13185  -0.40992  56.59710
      39 2002 12 21  0  2 17 695  3.6711    157.67017   1331.35959   1018.12845    -64.09814     38.07734     -2.76478    177.9    149.5      6.4     -6.2    529.6     72.4    174.9    181.5   3.13158  -0.40992  56.56802
      40 2002 12 21  0  2 21 366  3.6710    157.65203   1331.95473   1018.26125    -62.26068     38.00011     -2.78540    177.9    149.5      6.4     -6.2    529.6     72.5    174.9    181.5   3.13131  -0.40992  56.52235
      41 2002 12 21  0  2 25  37  3.6711    157.64034   1332.54484   1018.39195    -66.11872     38.43471     -2.80401    177.9    149.5      6.4     -6.2    529.7     72.6    174.9    181.5   3.13105  -0.40992  56.49398
      42 2002 12 21  0  2 28 708  3.6712    157.63999   1333.12997   1018.52074    -69.05935     40.71307     -2.82017    177.9    149.5      6.3     -6.2    529.7     72.7    174.9    181.5   3.13078  -0.40992  56.44845
      43 2002 12 21  0  2 32 378  3.6706    157.64262   1333.70979   1018.64747    -68.65587     41.38345     -2.83453    177.9    149.5      6.3     -6.3    529.7     72.8    174.9    181.5   3.13051  -0.40992  56.42079
      44 2002 12 21  0  2 36  48  3.6691    157.64448   1334.28378   1018.77227    -69.17123     41.31959     -2.84894    177.9    149.5      6.3     -6.3    529.8     72.9    174.9    181.5   3.13024  -0.40992  56.37544
      45 2002 12 21  0  2 39 714  3.6667    157.64126   1334.85238   1018.89510    -73.28698     44.18471     -2.86352    177.9    149.5      6.3     -6.3    529.8     73.0    174.9    181.5   3.12998  -0.40992  56.34849
      46 2002 12 21  0  2 43 378  3.6639    157.63316   1335.41808   1019.01619    -74.57491     45.69290     -2.87730    177.9    149.5      6.3     -6.3    529.8     73.1    174.9    181.5   3.12971  -0.40992  56.30338
      47 2002 12 21  0  2 47  39  3.6611    157.62844   1335.97951   1019.13554    -72.32195     45.49587     -2.89128    177.9    149.5      6.3     -6.3    529.8     73.2    174.9    181.5   3.12945  -0.40992  56.27714
      48 2002 12 21  0  2 50 698  3.6586    157.63008   1336.69618   1019.25337    -74.94175     46.43418     -2.90668    177.9    149.5      6.3     -6.3    529.9     73.3    174.9    181.5   3.12918  -0.40992  56.23226
      49 2002 12 21  0  2 54 354  3.6562    157.63691   1337.41988   1019.36966    -77.97111     48.71960     -2.92364    177.9    149.5      6.2     -6.3    529.9     73.4    174.9    181.5   3.12891  -0.40992  56.20673
      50 2002 12 21  0  2 58   8  3.6535    157.64512   1338.13738   1019.48460    -77.94048     49.62086     -2.94177    177.9    149.5      6.2     -6.4    529.9     73.5    174.9    181.5   3.12865  -0.40992  56.16203
      51 2002 12 21  0  3  1 658  3.6503    157.64746   1338.84874   1019.59828    -75.68690     49.37114     -2.96064    177.9    149.5      6.2     -6.4    530.0     73.7    174.9    181.5   3.12838  -0.40992  56.13726
      52 2002 12 21  0  3  5 305  3.6469    157.64718   1339.55405   1019.71103    -80.09422     52.27438     -2.97845    177.9    149.5      6.2     -6.3    530.1     73.9    174.9    181.5   3.12812  -0.40992  56.09270
      53 2002 12 21  0  3  8 946  3.6414    157.64707   1340.25556   1019.82307    -82.28602     54.18228     -2.99230    177.9    149.5      6.3     -6.3    530.2     74.0    174.9    181.5   3.12785  -0.40992  56.06874
      54 2002 12 21  0  3 12 585  3.6383    157.65115   1340.95140   1019.93460    -81.25043     54.62516     -2.99944    177.9    149.5      6.3     -6.3    530.3     74.2    174.9    181.5   3.12759  -0.40992  56.02428
      55 2002 12 21  0  3 16 220  3.6356    157.66054   1341.64186   1020.04565    -79.02623     54.95633     -2.99897    177.9    149.5      6.3     -6.3    530.3     74.4    174.9    181.5   3.12732  -0.40992  56.00132
      56 2002 12 21  0  3 19 853  3.6332    157.67025   1342.32723   1020.15653    -82.72752     57.53052     -2.98905    177.9    149.5      6.3     -6.3    530.4     74.6    174.9    181.5   3.12706  -0.40992  55.95655
      57 2002 12 21  0  3 23 484  3.6309    157.67552   1343.00791   1020.26723    -84.21547     59.11506     -2.96682    177.9    149.5      6.3     -6.2    530.5     74.8    174.9    181.5   3.12679  -0.40992  55.93450
      58 2002 12 21  0  3 27 113  3.6286    157.67638   1343.68433   1020.37799    -82.58397     59.29225     -2.92948    177.9    149.5      6.3     -6.2    530.6     75.0    174.9    181.5   3.12653  -0.40992  55.88948
      59 2002 12 21  0  3 30 739  3.6262    157.67796   1344.35690   1020.48900    -81.52582     61.06415     -2.87521    177.9    149.5      6.3     -6.2    530.7     75.2    174.9    181.5   3.12627  -0.40992  55.86842
      60 2002 12 21  0  3 34 363  3.6237    157.68499   1345.02601   1020.60068    -84.71843     63.28059     -2.80236    177.9    149.5      6.3     -6.2    530.8     75.4    174.9    181.5   3.12600  -0.40992  55.82305
      61 2002 12 21  0  3 37 984  3.6211    157.69592   1345.69230   1020.71309    -85.85923     64.55769     -2.70864    177.9    149.5      6.3     -6.2    530.9     75.6    174.9    181.5   3.12574  -0.40992  55.80301
      62 2002 12 21  0  3 41 603  3.6185    157.70550   1346.35646   1020.82641    -83.99077     69.24419     -2.59175    177.9    149.5      6.3     -6.1    530.9     75.8    174.9    181.5   3.12548  -0.40992  55.75721
      63 2002 12 21  0  3 45 218  3.6160    157.70878   1347.01926   1020.94069    -82.32411     72.77492     -2.45080    177.9    149.5      6.4     -6.1    531.0     76.0    174.9    181.5   3.12521  -0.40992  55.73813
      64 2002 12 21  0  3 48 832  3.6138    157.70909   1347.68147   1021.05627    -85.00664     73.93755     -2.28530    177.9    149.5      6.4     -6.1    531.1     76.1    174.9    181.5   3.12495  -0.40992  55.69200
      65 2002 12 21  0  3 52 444  3.6121    157.70932   1348.34395   1021.17313    -85.67454     73.15703     -2.09515    177.9    149.5      6.4     -6.1    531.2     76.3    174.9    181.5   3.12469  -0.40992  55.67378
      66 2002 12 21  0  3 56  56  3.6112    157.71183   1349.00765   1021.29139    -83.62552     75.79394     -1.88240    177.9    149.5      6.4     -6.1    531.3     76.5    174.9    181.5   3.12443  -0.40992  55.62755
      67 2002 12 21  0  3 59 666  3.6109    157.71790   1349.67477   1021.41105    -82.51201     80.67470     -1.65050    177.9    149.5      6.4     -6.0    531.4     76.7    174.9    181.5   3.12416  -0.40992  55.61007
      68 2002 12 21  0  4  3 277  3.6110    157.72436   1350.34791   1021.53239    -84.64473     82.97898     -1.40346    177.9    149.5      6.3     -6.1    531.5     76.8    174.9    181.5   3.12390  -0.40992  55.56394
      69 2002 12 21  0  4  6 889  3.6113    157.72816   1351.02755   1021.65539    -84.87573     82.95335     -1.14369    177.9    149.5      6.3     -6.1    531.6     76.8    193.6    206.3   3.12364  -0.40992  55.54713
      70 2002 12 21  0  4 10 506  3.6173    157.72892   1351.71165   1021.77996    -82.56505     84.23248     -0.87179    177.9    149.5      6.2     -6.1    531.8     76.8    193.6    206.3   3.12338  -0.40992  55.50109
      71 2002 12 21  0  4 14 119  3.6131    157.72944   1352.40658   1021.90566    -81.18597     90.12570     -0.59301    177.9    149.5      6.2     -6.1    531.9     76.9    193.6    206.3   3.12311  -0.40992  55.48493
      72 2002 12 21  0  4 17 735  3.6155    157.73136   1353.11167   1022.03282    -82.60674     93.37672     -0.31025    177.9    149.5      6.1     -6.2    532.1     76.9    193.6    206.3   3.12285  -0.40992  55.43856
      73 2002 12 21  0  4 21 350  3.6150    157.73414   1353.83124   1022.16113    -82.23812     94.10976     -0.02637    177.9    149.5      6.1     -6.2    532.2     76.9    193.6    206.3   3.12259  -0.40992  55.42296
      74 2002 12 21  0  4 24 964  3.6142    157.73537   1354.56633   1022.29054    -79.86950     92.69022      0.25689    177.9    149.5      6.0     -6.2    532.3     77.0    193.6    206.3   3.12232  -0.40992  55.37694
      75 2002 12 21  0  4 28 577  3.6132    157.73400   1355.32592   1022.42066    -79.21360     95.75200      0.53669    177.9    149.5      6.0     -6.2    532.5     77.0    193.6    206.3   3.12206  -0.40992  55.36187
      76 2002 12 21  0  4 32 190  3.6126    157.73098   1356.10825   1022.55137    -79.87003    100.57718      0.80970    177.9    149.5      5.9     -6.3    532.6     77.0    193.6    206.3   3.12180  -0.40992  55.31607
      77 2002 12 21  0  4 35 802  3.6123    157.72848   1356.91984   1022.68232    -78.84091    102.80491      1.07323    177.9    149.5      5.9     -6.3    532.8     77.1    193.6    206.3   3.12154  -0.40992  55.30146
      78 2002 12 21  0  4 39 415  3.6125    157.72782   1357.77102   1022.81336    -77.14872    102.59664      1.32722    177.9    149.5      5.8     -6.3    532.9     77.1    193.6    206.3   3.12127  -0.40992  55.25586
      79 2002 12 21  0  4 43  28  3.6132    157.72853   1358.66511   1022.94405    -76.40654    101.32167      1.57331    177.9    149.5      5.8     -6.3    533.0     77.1    193.6    206.3   3.12101  -0.40992  55.24168
      80 2002 12 21  0  4 46 642  3.6144    157.72889   1359.61626   1023.07409    -76.15740    107.32512      1.81271    177.9    149.5      5.7     -6.4    533.2     77.2    193.6    206.3   3.12075  -0.40992  55.19616
      81 2002 12 21  0  4 50 258  3.6159    157.72667   1360.64255   1023.20290    -74.84245    110.99099      2.04554    177.9    149.5      5.7     -6.4    533.3     77.2    193.6    206.3   3.12048  -0.40992  55.18237
      82 2002 12 21  0  4 53 876  3.6177    157.72224   1361.76804   1023.33017    -73.01236    112.16406      2.27215    177.9    149.5      5.6     -6.4    533.5     77.2    193.6    206.3   3.12022  -0.40992  55.13686
      83 2002 12 21  0  4 57 496  3.6196    157.71810   1363.01708   1023.45540    -72.86343    111.05751      2.49374    177.9    149.5      5.5     -6.4    533.6     77.3    193.6    206.3   3.11996  -0.40992  55.12344
      84 2002 12 21  0  5  0   0  2.5039    157.71783   1364.02194   1023.53816    -72.29145    108.74567      2.75365    177.9    149.5      5.5     -6.4    533.7     77.3    193.6    206.3   3.11978  -0.40992  55.09150
